'Id: "" Comment: "" Operator: "Lab Manager" Anode: "Cu" Scantype: "Coupled TwoTheta/Theta" TimePerStep: "191" 
10.0001	0.000
10.0501	-0.210
10.1001	-0.248
10.1502	-0.231
10.2002	-0.272
10.2502	-0.205
10.3002	-0.159
10.3503	-0.118
10.4003	-0.076
10.4503	-0.029
10.5003	0.030
10.5504	0.088
10.6004	0.156
10.6504	0.228
10.7004	0.241
10.7505	0.224
10.8005	0.214
10.8505	0.200
10.9005	0.175
10.9506	0.145
11.0006	0.088
11.0506	0.038
11.1006	0.007
11.1507	-0.004
11.2007	0.013
11.2507	0.062
11.3007	0.078
11.3508	0.071
11.4008	0.062
11.4508	0.029
11.5008	-0.019
11.5509	-0.027
11.6009	-0.014
11.6509	0.007
11.7009	0.046
11.751	0.110
11.801	0.177
11.851	0.253
11.901	0.296
11.951	0.302
12.0011	0.301
12.0511	0.264
12.1011	0.182
12.1511	0.111
12.2012	0.056
12.2512	0.029
12.3012	0.033
12.3512	0.039
12.4013	0.060
12.4513	0.128
12.5013	0.199
12.5513	0.264
12.6014	0.355
12.6514	0.438
12.7014	0.493
12.7514	0.544
12.8015	0.552
12.8515	0.521
12.9015	0.475
12.9515	0.392
13.0016	0.287
13.0516	0.181
13.1016	0.089
13.1516	0.039
13.2017	0.045
13.2517	0.068
13.3017	0.120
13.3517	0.194
13.4018	0.274
13.4518	0.323
13.5018	0.358
13.5518	0.388
13.6019	0.408
13.6519	0.378
13.7019	0.337
13.7519	0.329
13.8019	0.326
13.852	0.320
13.902	0.328
13.952	0.318
14.002	0.291
14.0521	0.250
14.1021	0.180
14.1521	0.116
14.2021	0.079
14.2522	0.052
14.3022	0.024
14.3522	0.026
14.4022	0.039
14.4523	0.052
14.5023	0.058
14.5523	0.066
14.6023	0.032
14.6524	-0.021
14.7024	-0.102
14.7524	-0.185
14.8024	-0.247
14.8525	-0.254
14.9025	-0.259
14.9525	-0.242
15.0025	-0.208
15.0526	-0.146
15.1026	-0.082
15.1526	-0.029
15.2026	-0.030
15.2527	-0.033
15.3027	-0.058
15.3527	-0.096
15.4027	-0.145
15.4528	-0.161
15.5028	-0.149
15.5528	-0.112
15.6028	-0.101
15.6528	-0.078
15.7029	-0.044
15.7529	-0.033
15.8029	-0.055
15.8529	-0.060
15.903	-0.071
15.953	-0.104
16.003	-0.139
16.053	-0.173
16.1031	-0.188
16.1531	-0.186
16.2031	-0.181
16.2531	-0.176
16.3032	-0.155
16.3532	-0.159
16.4032	-0.186
16.4532	-0.206
16.5033	-0.197
16.5533	-0.194
16.6033	-0.168
16.6533	-0.155
16.7034	-0.164
16.7534	-0.182
16.8034	-0.192
16.8534	-0.226
16.9035	-0.250
16.9535	-0.258
17.0035	-0.266
17.0535	-0.275
17.1036	-0.270
17.1536	-0.257
17.2036	-0.208
17.2536	-0.139
17.3036	-0.096
17.3537	-0.081
17.4037	-0.086
17.4537	-0.101
17.5037	-0.135
17.5538	-0.199
17.6038	-0.281
17.6538	-0.342
17.7038	-0.385
17.7539	-0.389
17.8039	-0.363
17.8539	-0.319
17.9039	-0.266
17.954	-0.204
18.004	-0.154
18.054	-0.091
18.104	-0.022
18.1541	-0.007
18.2041	-0.052
18.2541	-0.127
18.3041	-0.203
18.3542	-0.268
18.4042	-0.334
18.4542	-0.426
18.5042	-0.501
18.5543	-0.517
18.6043	-0.485
18.6543	-0.459
18.7043	-0.421
18.7544	-0.387
18.8044	-0.351
18.8544	-0.304
18.9044	-0.238
18.9545	-0.223
19.0045	-0.245
19.0545	-0.290
19.1045	-0.339
19.1545	-0.360
19.2046	-0.343
19.2546	-0.361
19.3046	-0.370
19.3546	-0.378
19.4047	-0.389
19.4547	-0.379
19.5047	-0.334
19.5547	-0.308
19.6048	-0.271
19.6548	-0.228
19.7048	-0.180
19.7548	-0.128
19.8049	-0.092
19.8549	-0.108
19.9049	-0.128
19.9549	-0.125
20.005	-0.124
20.055	-0.143
20.105	-0.175
20.155	-0.214
20.2051	-0.244
20.2551	-0.259
20.3051	-0.241
20.3551	-0.206
20.4052	-0.174
20.4552	-0.157
20.5052	-0.171
20.5552	-0.170
20.6053	-0.162
20.6553	-0.177
20.7053	-0.218
20.7553	-0.262
20.8054	-0.326
20.8554	-0.358
20.9054	-0.342
20.9554	-0.292
21.0054	-0.231
21.0555	-0.152
21.1055	-0.078
21.1555	0.000
21.2055	0.077
21.2556	0.149
21.3056	0.195
21.3556	0.206
21.4056	0.181
21.4557	0.157
21.5057	0.155
21.5557	0.181
21.6057	0.205
21.6558	0.207
21.7058	0.190
21.7558	0.165
21.8058	0.140
21.8559	0.124
21.9059	0.110
21.9559	0.076
22.0059	0.048
22.056	0.041
22.106	0.054
22.156	0.067
22.206	0.090
22.2561	0.111
22.3061	0.138
22.3561	0.150
22.4061	0.158
22.4562	0.164
22.5062	0.180
22.5562	0.179
22.6062	0.179
22.6563	0.194
22.7063	0.218
22.7563	0.214
22.8063	0.213
22.8563	0.212
22.9064	0.224
22.9564	0.210
23.0064	0.163
23.0564	0.100
23.1065	0.063
23.1565	0.026
23.2065	-0.008
23.2565	-0.051
23.3066	-0.099
23.3566	-0.153
23.4066	-0.181
23.4566	-0.189
23.5067	-0.178
23.5567	-0.162
23.6067	-0.172
23.6567	-0.216
23.7068	-0.257
23.7568	-0.270
23.8068	-0.293
23.8568	-0.343
23.9069	-0.393
23.9569	-0.422
24.0069	-0.455
24.0569	-0.485
24.107	-0.475
24.157	-0.423
24.207	-0.375
24.257	-0.340
24.3071	-0.296
24.3571	-0.224
24.4071	-0.147
24.4571	-0.098
24.5072	-0.086
24.5572	-0.095
24.6072	-0.145
24.6572	-0.223
24.7072	-0.281
24.7573	-0.324
24.8073	-0.397
24.8573	-0.464
24.9073	-0.493
24.9574	-0.499
25.0074	-0.469
25.0574	-0.413
25.1074	-0.371
25.1575	-0.331
25.2075	-0.292
25.2575	-0.248
25.3075	-0.193
25.3576	-0.138
25.4076	-0.105
25.4576	-0.093
25.5076	-0.098
25.5577	-0.109
25.6077	-0.114
25.6577	-0.120
25.7077	-0.149
25.7578	-0.187
25.8078	-0.210
25.8578	-0.210
25.9078	-0.219
25.9579	-0.251
26.0079	-0.266
26.0579	-0.255
26.1079	-0.258
26.158	-0.266
26.208	-0.261
26.258	-0.257
26.308	-0.264
26.3581	-0.281
26.4081	-0.274
26.4581	-0.242
26.5081	-0.225
26.5581	-0.234
26.6082	-0.236
26.6582	-0.218
26.7082	-0.191
26.7582	-0.167
26.8083	-0.133
26.8583	-0.089
26.9083	-0.069
26.9583	-0.075
27.0084	-0.076
27.0584	-0.063
27.1084	-0.047
27.1584	-0.037
27.2085	-0.041
27.2585	-0.059
27.3085	-0.095
27.3585	-0.142
27.4086	-0.157
27.4586	-0.140
27.5086	-0.137
27.5586	-0.155
27.6087	-0.179
27.6587	-0.181
27.7087	-0.148
27.7587	-0.123
27.8088	-0.121
27.8588	-0.112
27.9088	-0.118
27.9588	-0.141
28.0089	-0.139
28.0589	-0.125
28.1089	-0.129
28.1589	-0.128
28.2089	-0.123
28.259	-0.119
28.309	-0.108
28.359	-0.116
28.409	-0.146
28.4591	-0.155
28.5091	-0.153
28.5591	-0.172
28.6091	-0.182
28.6592	-0.159
28.7092	-0.115
28.7592	-0.057
28.8092	0.013
28.8593	0.078
28.9093	0.132
28.9593	0.167
29.0093	0.181
29.0594	0.192
29.1094	0.190
29.1594	0.168
29.2094	0.140
29.2595	0.125
29.3095	0.129
29.3595	0.132
29.4095	0.115
29.4596	0.072
29.5096	0.002
29.5596	-0.067
29.6096	-0.112
29.6597	-0.162
29.7097	-0.240
29.7597	-0.305
29.8097	-0.350
29.8598	-0.378
29.9098	-0.386
29.9598	-0.361
30.0098	-0.328
30.0598	-0.301
30.1099	-0.293
30.1599	-0.270
30.2099	-0.237
30.2599	-0.208
30.31	-0.211
30.36	-0.224
30.41	-0.238
30.46	-0.243
30.5101	-0.249
30.5601	-0.243
30.6101	-0.244
30.6601	-0.253
30.7102	-0.277
30.7602	-0.305
30.8102	-0.341
30.8602	-0.378
30.9103	-0.427
30.9603	-0.462
31.0103	-0.477
31.0603	-0.487
31.1104	-0.492
31.1604	-0.484
31.2104	-0.477
31.2604	-0.471
31.3105	-0.471
31.3605	-0.471
31.4105	-0.457
31.4605	-0.453
31.5106	-0.474
31.5606	-0.481
31.6106	-0.455
31.6606	-0.432
31.7107	-0.425
31.7607	-0.422
31.8107	-0.431
31.8607	-0.457
31.9107	-0.494
31.9608	-0.517
32.0108	-0.508
32.0608	-0.507
32.1108	-0.533
32.1609	-0.538
32.2109	-0.497
32.2609	-0.437
32.3109	-0.385
32.361	-0.337
32.411	-0.299
32.461	-0.281
32.511	-0.286
32.5611	-0.310
32.6111	-0.352
32.6611	-0.407
32.7111	-0.480
32.7612	-0.540
32.8112	-0.571
32.8612	-0.581
32.9112	-0.594
32.9613	-0.594
33.0113	-0.590
33.0613	-0.585
33.1113	-0.565
33.1614	-0.534
33.2114	-0.519
33.2614	-0.486
33.3114	-0.439
33.3615	-0.408
33.4115	-0.386
33.4615	-0.367
33.5115	-0.371
33.5616	-0.364
33.6116	-0.341
33.6616	-0.331
33.7116	-0.320
33.7616	-0.300
33.8117	-0.293
33.8617	-0.285
33.9117	-0.276
33.9617	-0.286
34.0118	-0.312
34.0618	-0.362
34.1118	-0.433
34.1618	-0.485
34.2119	-0.510
34.2619	-0.513
34.3119	-0.493
34.3619	-0.456
34.412	-0.417
34.462	-0.387
34.512	-0.361
34.562	-0.336
34.6121	-0.318
34.6621	-0.324
34.7121	-0.348
34.7621	-0.383
34.8122	-0.414
34.8622	-0.429
34.9122	-0.418
34.9622	-0.396
35.0123	-0.377
35.0623	-0.373
35.1123	-0.371
35.1623	-0.375
35.2124	-0.367
35.2624	-0.348
35.3124	-0.329
35.3624	-0.327
35.4125	-0.321
35.4625	-0.312
35.5125	-0.290
35.5625	-0.254
35.6125	-0.208
35.6626	-0.174
35.7126	-0.154
35.7626	-0.149
35.8126	-0.141
35.8627	-0.129
35.9127	-0.111
35.9627	-0.086
36.0127	-0.071
36.0628	-0.079
36.1128	-0.104
36.1628	-0.117
36.2128	-0.115
36.2629	-0.118
36.3129	-0.137
36.3629	-0.152
36.4129	-0.153
36.463	-0.142
36.513	-0.115
36.563	-0.063
36.613	-0.011
36.6631	0.017
36.7131	0.035
36.7631	0.054
36.8131	0.064
36.8632	0.076
36.9132	0.092
36.9632	0.102
37.0132	0.102
37.0633	0.105
37.1133	0.118
37.1633	0.135
37.2133	0.154
37.2634	0.162
37.3134	0.166
37.3634	0.178
37.4134	0.188
37.4634	0.196
37.5135	0.209
37.5635	0.226
37.6135	0.249
37.6635	0.273
37.7136	0.287
37.7636	0.296
37.8136	0.311
37.8636	0.334
37.9137	0.349
37.9637	0.347
38.0137	0.338
38.0637	0.331
38.1138	0.319
38.1638	0.304
38.2138	0.299
38.2638	0.308
38.3139	0.303
38.3639	0.287
38.4139	0.281
38.4639	0.298
38.514	0.305
38.564	0.288
38.614	0.255
38.664	0.234
38.7141	0.224
38.7641	0.209
38.8141	0.193
38.8641	0.201
38.9142	0.217
38.9642	0.235
39.0142	0.274
39.0642	0.333
39.1142	0.369
39.1643	0.382
39.2143	0.377
39.2643	0.366
39.3143	0.345
39.3644	0.308
39.4144	0.258
39.4644	0.214
39.5144	0.179
39.5645	0.165
39.6145	0.181
39.6645	0.218
39.7145	0.256
39.7646	0.295
39.8146	0.329
39.8646	0.351
39.9146	0.346
39.9647	0.321
40.0147	0.293
40.0647	0.269
40.1147	0.242
40.1648	0.228
40.2148	0.220
40.2648	0.208
40.3148	0.206
40.3649	0.214
40.4149	0.218
40.4649	0.207
40.5149	0.175
40.565	0.132
40.615	0.101
40.665	0.082
40.715	0.063
40.7651	0.044
40.8151	0.022
40.8651	0.001
40.9151	-0.003
40.9651	0.002
41.0152	-0.001
41.0652	-0.009
41.1152	-0.023
41.1652	-0.030
41.2153	-0.005
41.2653	0.029
41.3153	0.055
41.3653	0.078
41.4154	0.112
41.4654	0.161
41.5154	0.216
41.5654	0.261
41.6155	0.295
41.6655	0.310
41.7155	0.289
41.7655	0.237
41.8156	0.190
41.8656	0.133
41.9156	0.065
41.9656	0.001
42.0157	-0.058
42.0657	-0.109
42.1157	-0.123
42.1657	-0.098
42.2158	-0.041
42.2658	0.022
42.3158	0.071
42.3658	0.099
42.4159	0.108
42.4659	0.105
42.5159	0.114
42.5659	0.134
42.616	0.139
42.666	0.114
42.716	0.077
42.766	0.049
42.816	0.033
42.8661	0.017
42.9161	-0.003
42.9661	-0.013
43.0161	-0.027
43.0662	-0.047
43.1162	-0.055
43.1662	-0.040
43.2162	-0.024
43.2663	-0.002
43.3163	0.025
43.3663	0.047
43.4163	0.070
43.4664	0.089
43.5164	0.095
43.5664	0.121
43.6164	0.184
43.6665	0.257
43.7165	0.355
43.7665	0.514
43.8165	0.744
43.8666	1.121
43.9166	1.735
43.9666	3.074
44.0166	6.358
44.0667	12.650
44.1167	21.666
44.1667	31.960
44.2167	41.907
44.2668	50.085
44.3168	55.484
44.3668	57.634
44.4168	56.487
44.4669	52.089
44.5169	44.572
44.5669	34.615
44.6169	24.002
44.6669	14.866
44.717	8.329
44.767	4.291
44.817	2.162
44.867	1.211
44.9171	0.769
44.9671	0.474
45.0171	0.276
45.0671	0.147
45.1172	0.067
45.1672	0.011
45.2172	-0.029
45.2672	-0.058
45.3173	-0.094
45.3673	-0.128
45.4173	-0.148
45.4673	-0.155
45.5174	-0.153
45.5674	-0.145
45.6174	-0.136
45.6674	-0.115
45.7175	-0.073
45.7675	-0.016
45.8175	0.029
45.8675	0.054
45.9176	0.058
45.9676	0.031
46.0176	-0.010
46.0676	-0.051
46.1177	-0.095
46.1677	-0.140
46.2177	-0.181
46.2677	-0.238
46.3178	-0.289
46.3678	-0.314
46.4178	-0.321
46.4678	-0.314
46.5178	-0.274
46.5679	-0.225
46.6179	-0.182
46.6679	-0.135
46.7179	-0.085
46.768	-0.046
46.818	-0.009
46.868	0.011
46.918	0.011
46.9681	0.009
47.0181	0.004
47.0681	-0.022
47.1181	-0.046
47.1682	-0.063
47.2182	-0.089
47.2682	-0.120
47.3182	-0.144
47.3683	-0.172
47.4183	-0.201
47.4683	-0.231
47.5183	-0.255
47.5684	-0.258
47.6184	-0.237
47.6684	-0.216
47.7184	-0.185
47.7685	-0.150
47.8185	-0.123
47.8685	-0.118
47.9185	-0.125
47.9686	-0.133
48.0186	-0.133
48.0686	-0.141
48.1186	-0.161
48.1687	-0.170
48.2187	-0.161
48.2687	-0.150
48.3187	-0.134
48.3687	-0.096
48.4188	-0.057
48.4688	-0.040
48.5188	-0.047
48.5688	-0.055
48.6189	-0.051
48.6689	-0.048
48.7189	-0.059
48.7689	-0.054
48.819	-0.043
48.869	-0.049
48.919	-0.066
48.969	-0.061
49.0191	-0.047
49.0691	-0.037
49.1191	-0.051
49.1691	-0.075
49.2192	-0.101
49.2692	-0.121
49.3192	-0.132
49.3692	-0.133
49.4193	-0.129
49.4693	-0.126
49.5193	-0.129
49.5693	-0.125
49.6194	-0.116
49.6694	-0.108
49.7194	-0.102
49.7694	-0.099
49.8195	-0.101
49.8695	-0.095
49.9195	-0.071
49.9695	-0.050
50.0195	-0.049
50.0696	-0.047
50.1196	-0.031
50.1696	-0.024
50.2196	-0.024
50.2697	-0.029
50.3197	-0.030
50.3697	-0.032
50.4197	-0.037
50.4698	-0.046
50.5198	-0.042
50.5698	-0.031
50.6198	-0.028
50.6699	-0.018
50.7199	0.011
50.7699	0.027
50.8199	0.035
50.87	0.048
50.92	0.069
50.97	0.085
51.02	0.086
51.0701	0.065
51.1201	0.032
51.1701	-0.006
51.2201	-0.045
51.2702	-0.081
51.3202	-0.101
51.3702	-0.111
51.4202	-0.120
51.4703	-0.122
51.5203	-0.104
51.5703	-0.067
51.6203	-0.027
51.6704	-0.002
51.7204	0.012
51.7704	0.034
51.8204	0.052
51.8704	0.050
51.9205	0.051
51.9705	0.061
52.0205	0.061
52.0705	0.057
52.1206	0.071
52.1706	0.101
52.2206	0.148
52.2706	0.182
52.3207	0.196
52.3707	0.199
52.4207	0.188
52.4707	0.155
52.5208	0.129
52.5708	0.093
52.6208	0.034
52.6708	-0.012
52.7209	-0.036
52.7709	-0.057
52.8209	-0.062
52.8709	-0.051
52.921	-0.022
52.971	0.026
53.021	0.079
53.071	0.120
53.1211	0.151
53.1711	0.164
53.2211	0.158
53.2711	0.152
53.3212	0.147
53.3712	0.126
53.4212	0.092
53.4712	0.058
53.5213	0.038
53.5713	0.042
53.6213	0.070
53.6713	0.106
53.7213	0.136
53.7714	0.154
53.8214	0.171
53.8714	0.189
53.9214	0.209
53.9715	0.227
54.0215	0.249
54.0715	0.266
54.1215	0.292
54.1716	0.311
54.2216	0.319
54.2716	0.316
54.3216	0.322
54.3717	0.328
54.4217	0.331
54.4717	0.320
54.5217	0.315
54.5718	0.313
54.6218	0.304
54.6718	0.269
54.7218	0.237
54.7719	0.221
54.8219	0.197
54.8719	0.157
54.9219	0.133
54.972	0.132
55.022	0.140
55.072	0.138
55.122	0.151
55.1721	0.176
55.2221	0.195
55.2721	0.190
55.3221	0.172
55.3722	0.163
55.4222	0.168
55.4722	0.172
55.5222	0.176
55.5722	0.172
55.6223	0.163
55.6723	0.163
55.7223	0.162
55.7723	0.146
55.8224	0.136
55.8724	0.130
55.9224	0.122
55.9724	0.112
56.0225	0.115
56.0725	0.130
56.1225	0.155
56.1725	0.162
56.2226	0.167
56.2726	0.189
56.3226	0.211
56.3726	0.214
56.4227	0.212
56.4727	0.209
56.5227	0.203
56.5727	0.199
56.6228	0.194
56.6728	0.198
56.7228	0.212
56.7728	0.214
56.8229	0.199
56.8729	0.181
56.9229	0.160
56.9729	0.141
57.023	0.126
57.073	0.111
57.123	0.103
57.173	0.111
57.2231	0.123
57.2731	0.147
57.3231	0.185
57.3731	0.215
57.4231	0.232
57.4732	0.247
57.5232	0.252
57.5732	0.251
57.6232	0.253
57.6733	0.248
57.7233	0.239
57.7733	0.229
57.8233	0.211
57.8734	0.191
57.9234	0.176
57.9734	0.156
58.0234	0.145
58.0735	0.144
58.1235	0.134
58.1735	0.126
58.2235	0.126
58.2736	0.128
58.3236	0.125
58.3736	0.115
58.4236	0.096
58.4737	0.076
58.5237	0.062
58.5737	0.061
58.6237	0.080
58.6738	0.115
58.7238	0.146
58.7738	0.164
58.8238	0.176
58.8739	0.190
58.9239	0.197
58.9739	0.179
59.0239	0.148
59.074	0.123
59.124	0.098
59.174	0.076
59.224	0.074
59.274	0.086
59.3241	0.097
59.3741	0.095
59.4241	0.099
59.4741	0.109
59.5242	0.117
59.5742	0.106
59.6242	0.083
59.6742	0.067
59.7243	0.064
59.7743	0.057
59.8243	0.054
59.8743	0.051
59.9244	0.034
59.9744	0.014
60.0244	0.007
60.0744	0.001
60.1245	-0.007
60.1745	-0.013
60.2245	-0.014
60.2745	-0.014
60.3246	0.003
60.3746	0.016
60.4246	0.014
60.4746	0.007
60.5247	-0.007
60.5747	-0.030
60.6247	-0.050
60.6747	-0.066
60.7248	-0.088
60.7748	-0.116
60.8248	-0.134
60.8748	-0.146
60.9248	-0.154
60.9749	-0.157
61.0249	-0.157
61.0749	-0.161
61.1249	-0.163
61.175	-0.172
61.225	-0.181
61.275	-0.170
61.325	-0.137
61.3751	-0.108
61.4251	-0.078
61.4751	-0.047
61.5251	-0.025
61.5752	-0.011
61.6252	0.002
61.6752	-0.001
61.7252	-0.017
61.7753	-0.043
61.8253	-0.065
61.8753	-0.085
61.9253	-0.102
61.9754	-0.117
62.0254	-0.107
62.0754	-0.077
62.1254	-0.045
62.1755	-0.021
62.2255	0.015
62.2755	0.059
62.3255	0.091
62.3756	0.117
62.4256	0.147
62.4756	0.161
62.5256	0.157
62.5757	0.163
62.6257	0.176
62.6757	0.184
62.7257	0.177
62.7757	0.163
62.8258	0.152
62.8758	0.144
62.9258	0.116
62.9758	0.087
63.0259	0.055
63.0759	0.004
63.1259	-0.053
63.1759	-0.069
63.226	-0.046
63.276	-0.015
63.326	0.012
63.376	0.051
63.4261	0.095
63.4761	0.142
63.5261	0.179
63.5761	0.208
63.6262	0.229
63.6762	0.250
63.7262	0.279
63.7762	0.324
63.8263	0.393
63.8763	0.490
63.9263	0.618
63.9763	0.796
64.0264	1.061
64.0764	1.483
64.1264	2.251
64.1764	3.730
64.2265	6.351
64.2765	10.113
64.3265	14.450
64.3765	18.786
64.4266	22.801
64.4766	26.129
64.5266	28.305
64.5766	28.994
64.6266	28.065
64.6767	25.566
64.7267	21.760
64.7767	17.235
64.8267	12.856
64.8768	9.179
64.9268	6.194
64.9768	3.829
65.0268	2.185
65.0769	1.220
65.1269	0.717
65.1769	0.454
65.2269	0.295
65.277	0.202
65.327	0.162
65.377	0.145
65.427	0.141
65.4771	0.138
65.5271	0.124
65.5771	0.102
65.6271	0.083
65.6772	0.055
65.7272	0.030
65.7772	0.000
65.8272	-0.032
65.8773	-0.060
65.9273	-0.077
65.9773	-0.087
66.0273	-0.090
66.0774	-0.091
66.1274	-0.084
66.1774	-0.078
66.2274	-0.075
66.2775	-0.068
66.3275	-0.054
66.3775	-0.041
66.4275	-0.025
66.4775	-0.005
66.5276	0.010
66.5776	0.016
66.6276	0.008
66.6776	0.000
66.7277	0.004
66.7777	0.006
66.8277	-0.014
66.8777	-0.039
66.9278	-0.053
66.9778	-0.057
67.0278	-0.055
67.0778	-0.048
67.1279	-0.032
67.1779	-0.021
67.2279	-0.031
67.2779	-0.049
67.328	-0.054
67.378	-0.059
67.428	-0.079
67.478	-0.104
67.5281	-0.122
67.5781	-0.132
67.6281	-0.137
67.6781	-0.132
67.7282	-0.105
67.7782	-0.076
67.8282	-0.060
67.8782	-0.062
67.9283	-0.076
67.9783	-0.081
68.0283	-0.080
68.0783	-0.090
68.1284	-0.111
68.1784	-0.130
68.2284	-0.154
68.2784	-0.164
68.3284	-0.156
68.3785	-0.134
68.4285	-0.116
68.4785	-0.112
68.5285	-0.127
68.5786	-0.128
68.6286	-0.112
68.6786	-0.092
68.7286	-0.077
68.7787	-0.068
68.8287	-0.079
68.8787	-0.088
68.9287	-0.092
68.9788	-0.091
69.0288	-0.101
69.0788	-0.120
69.1288	-0.151
69.1789	-0.186
69.2289	-0.226
69.2789	-0.257
69.3289	-0.275
69.379	-0.273
69.429	-0.260
69.479	-0.246
69.529	-0.223
69.5791	-0.195
69.6291	-0.176
69.6791	-0.149
69.7291	-0.120
69.7792	-0.103
69.8292	-0.102
69.8792	-0.113
69.9292	-0.135
69.9793	-0.139
70.0293	-0.127
70.0793	-0.120
70.1293	-0.111
70.1793	-0.101
70.2294	-0.097
70.2794	-0.092
70.3294	-0.075
70.3794	-0.052
70.4295	-0.026
70.4795	-0.006
70.5295	0.005
70.5795	0.010
70.6296	0.010
70.6796	0.011
70.7296	0.005
70.7796	-0.010
70.8297	-0.038
70.8797	-0.068
70.9297	-0.092
70.9797	-0.104
71.0298	-0.109
71.0798	-0.114
71.1298	-0.124
71.1798	-0.143
71.2299	-0.161
71.2799	-0.155
71.3299	-0.131
71.3799	-0.100
71.43	-0.067
71.48	-0.028
71.53	0.009
71.58	0.034
71.6301	0.046
71.6801	0.054
71.7301	0.056
71.7801	0.041
71.8301	0.018
71.8802	0.003
71.9302	0.001
71.9802	0.011
72.0302	0.024
72.0803	0.029
72.1303	0.034
72.1803	0.030
72.2303	0.015
72.2804	0.007
72.3304	0.014
72.3804	0.015
72.4304	0.015
72.4805	0.033
72.5305	0.061
72.5805	0.077
72.6305	0.076
72.6806	0.071
72.7306	0.073
72.7806	0.071
72.8306	0.059
72.8807	0.046
72.9307	0.032
72.9807	0.005
73.0307	-0.031
73.0808	-0.051
73.1308	-0.056
73.1808	-0.068
73.2308	-0.083
73.2809	-0.076
73.3309	-0.058
73.3809	-0.049
73.4309	-0.049
73.481	-0.041
73.531	-0.038
73.581	-0.053
73.631	-0.080
73.681	-0.094
73.7311	-0.096
73.7811	-0.099
73.8311	-0.099
73.8811	-0.089
73.9312	-0.080
73.9812	-0.082
74.0312	-0.084
74.0812	-0.077
74.1313	-0.066
74.1813	-0.068
74.2313	-0.085
74.2813	-0.096
74.3314	-0.101
74.3814	-0.114
74.4314	-0.133
74.4814	-0.151
74.5315	-0.175
74.5815	-0.189
74.6315	-0.180
74.6815	-0.159
74.7316	-0.138
74.7816	-0.119
74.8316	-0.110
74.8816	-0.105
74.9317	-0.110
74.9817	-0.128
75.0317	-0.150
75.0817	-0.180
75.1318	-0.224
75.1818	-0.254
75.2318	-0.246
75.2818	-0.220
75.3319	-0.195
75.3819	-0.170
75.4319	-0.141
75.4819	-0.117
75.5319	-0.103
75.582	-0.095
75.632	-0.078
75.682	-0.061
75.732	-0.052
75.7821	-0.039
75.8321	-0.020
75.8821	-0.002
75.9321	0.007
75.9822	0.015
76.0322	0.026
76.0822	0.042
76.1322	0.049
76.1823	0.048
76.2323	0.047
76.2823	0.059
76.3323	0.075
76.3824	0.088
76.4324	0.091
76.4824	0.090
76.5324	0.073
76.5825	0.034
76.6325	-0.012
76.6825	-0.036
76.7325	-0.043
76.7826	-0.039
76.8326	-0.020
76.8826	0.005
76.9326	0.022
76.9827	0.028
77.0327	0.033
77.0827	0.043
77.1327	0.047
77.1828	0.023
77.2328	-0.019
77.2828	-0.058
77.3328	-0.082
77.3828	-0.075
77.4329	-0.047
77.4829	-0.023
77.5329	-0.005
77.5829	0.016
77.633	0.039
77.683	0.068
77.733	0.097
77.783	0.106
77.8331	0.089
77.8831	0.064
77.9331	0.034
77.9831	0.007
78.0332	-0.018
78.0832	-0.055
78.1332	-0.101
78.1832	-0.139
78.2333	-0.167
78.2833	-0.171
78.3333	-0.156
78.3833	-0.134
78.4334	-0.111
78.4834	-0.085
78.5334	-0.065
78.5834	-0.054
78.6335	-0.046
78.6835	-0.044
78.7335	-0.049
78.7835	-0.056
78.8336	-0.060
78.8836	-0.052
78.9336	-0.013
78.9836	0.050
79.0337	0.109
79.0837	0.169
79.1337	0.208
79.1837	0.257
79.2337	0.290
79.2838	0.340
79.3338	0.143
79.3838	0.000
